Coaxial Probe Method (Opt. 004) 20.0.22083101
Keysight Technologies,P9371A,MY57211751,A.17.25.05

Ch 1
Port:, 1
Probe:, High temperature
Std1:, Air
Std2:, Short
Std3:, 25.0C water
IFBW:, 300.000000 Hz
Power:, -5.000000 dBm
Date:,"Saturday, July 06, 2024 17:52:01"
frequency(Hz),e',e''
3e+008,6.31702,1.72292
3.01e+008,6.3244,1.72236
3.02e+008,6.32074,1.72827
3.03e+008,6.33453,1.73555
3.04e+008,6.33319,1.73307
3.05e+008,6.34663,1.7447
3.06e+008,6.34054,1.74453
3.07e+008,6.34729,1.75919
3.08e+008,6.34538,1.76213
3.09e+008,6.35579,1.76943
3.1e+008,6.36389,1.77612
3.11e+008,6.36576,1.78134
3.12e+008,6.36777,1.79338
3.13e+008,6.38981,1.78433
3.14e+008,6.39988,1.78672
3.15e+008,6.40372,1.79121
3.16e+008,6.41513,1.79815
3.17e+008,6.41761,1.8052
3.18e+008,6.42477,1.80902
3.19e+008,6.42446,1.81191
3.2e+008,6.43549,1.81672
3.21e+008,6.44109,1.8207
3.22e+008,6.44375,1.82697
3.23e+008,6.44773,1.83147
3.24e+008,6.45367,1.84083
3.25e+008,6.45268,1.84652
3.26e+008,6.45959,1.85251
3.27e+008,6.46751,1.86061
3.28e+008,6.46694,1.86446
3.29e+008,6.47305,1.86974
3.3e+008,6.4743,1.87148
3.31e+008,6.47698,1.88066
3.32e+008,6.47437,1.8837
3.33e+008,6.47757,1.89141
3.34e+008,6.48414,1.89243
3.35e+008,6.48745,1.89858
3.36e+008,6.48285,1.90407
3.37e+008,6.48446,1.90822
3.38e+008,6.48946,1.91383
3.39e+008,6.4863,1.91876
3.4e+008,6.48648,1.92831
3.41e+008,6.48056,1.92745
3.42e+008,6.47895,1.92671
3.43e+008,6.48341,1.93068
3.44e+008,6.47923,1.93126
3.45e+008,6.48729,1.93773
3.46e+008,6.47507,1.9407
3.47e+008,6.48109,1.94113
3.48e+008,6.47928,1.94036
3.49e+008,6.472,1.94836
3.5e+008,6.46222,1.95118
3.51e+008,6.46451,1.94871
3.52e+008,6.45931,1.95552
3.53e+008,6.45052,1.95923
3.54e+008,6.44707,1.96197
3.55e+008,6.43923,1.96241
3.56e+008,6.42907,1.96855
3.57e+008,6.42057,1.96724
3.58e+008,6.4091,1.96884
3.59e+008,6.40653,1.97657
3.6e+008,6.39739,1.97593
3.61e+008,6.38778,1.98196
3.62e+008,6.37924,1.97999
3.63e+008,6.35939,1.99216
3.64e+008,6.35112,1.98692
3.65e+008,6.34013,1.98908
3.66e+008,6.33022,1.9893
3.67e+008,6.32063,1.99091
3.68e+008,6.30399,1.99488
3.69e+008,6.29012,1.99975
3.7e+008,6.2811,1.99539
3.71e+008,6.26994,1.99617
3.72e+008,6.25919,1.99672
3.73e+008,6.24565,2.00587
3.74e+008,6.23366,2.00009
3.75e+008,6.22133,2.00327
3.76e+008,6.20939,2.00026
3.77e+008,6.20153,1.99945
3.78e+008,6.18616,2.00655
3.79e+008,6.16644,2.01099
3.8e+008,6.1469,2.00582
3.81e+008,6.13258,2.01098
3.82e+008,6.11671,2.0168
3.83e+008,6.09972,2.01907
3.84e+008,6.0817,2.02787
3.85e+008,6.06975,2.0256
3.86e+008,6.0524,2.02725
3.87e+008,6.03843,2.02969
3.88e+008,6.02469,2.02998
3.89e+008,6.01,2.03224
3.9e+008,5.99158,2.03478
3.91e+008,5.97509,2.04142
3.92e+008,5.95999,2.04383
3.93e+008,5.94683,2.04457
3.94e+008,5.92564,2.04849
3.95e+008,5.91298,2.04862
3.96e+008,5.90461,2.05046
3.97e+008,5.89421,2.05259
3.98e+008,5.8806,2.05401
3.99e+008,5.86906,2.05813
4e+008,5.86103,2.05867
4.01e+008,5.85506,2.05574
4.02e+008,5.84263,2.0609
4.03e+008,5.83122,2.06584
4.04e+008,5.81975,2.05793
4.05e+008,5.80584,2.06699
4.06e+008,5.80149,2.06735
4.07e+008,5.79476,2.07072
4.08e+008,5.78934,2.07114
4.09e+008,5.7804,2.06761
4.1e+008,5.77704,2.07332
4.11e+008,5.77407,2.07242
4.12e+008,5.76017,2.07847
4.13e+008,5.75984,2.0789
4.14e+008,5.75015,2.07761
4.15e+008,5.74744,2.08931
4.16e+008,5.73641,2.0826
4.17e+008,5.73879,2.09105
4.18e+008,5.73898,2.0922
4.19e+008,5.7421,2.09005
4.2e+008,5.74555,2.08523
4.21e+008,5.74445,2.08919
4.22e+008,5.74783,2.09182
4.23e+008,5.75045,2.09634
4.24e+008,5.75292,2.09661
4.25e+008,5.7526,2.09563
4.26e+008,5.76299,2.10034
4.27e+008,5.76668,2.10045
4.28e+008,5.77513,2.09802
4.29e+008,5.77832,2.09467
4.3e+008,5.79303,2.0965
4.31e+008,5.79351,2.09944
4.32e+008,5.80524,2.09351
4.33e+008,5.81048,2.09609
4.34e+008,5.81661,2.09453
4.35e+008,5.8266,2.09873
4.36e+008,5.82951,2.09639
4.37e+008,5.84015,2.09744
4.38e+008,5.84695,2.09966
4.39e+008,5.85421,2.10057
4.4e+008,5.85624,2.10468
4.41e+008,5.86678,2.10136
4.42e+008,5.87045,2.10935
4.43e+008,5.87904,2.10856
4.44e+008,5.8837,2.10967
4.45e+008,5.88924,2.11507
4.46e+008,5.88517,2.11536
4.47e+008,5.88861,2.12213
4.48e+008,5.89502,2.12081
4.49e+008,5.89442,2.12564
4.5e+008,5.89547,2.13151
4.51e+008,5.89638,2.13661
4.52e+008,5.89692,2.1372
4.53e+008,5.90205,2.13914
4.54e+008,5.90418,2.14539
4.55e+008,5.90825,2.14305
4.56e+008,5.91657,2.14041
4.57e+008,5.91658,2.14619
4.58e+008,5.91688,2.15062
4.59e+008,5.91488,2.15473
4.6e+008,5.91823,2.15755
4.61e+008,5.9142,2.15621
4.62e+008,5.90963,2.16058
4.63e+008,5.90938,2.16321
4.64e+008,5.90828,2.17078
4.65e+008,5.90662,2.17278
4.66e+008,5.90249,2.1708
4.67e+008,5.90544,2.16905
4.68e+008,5.89997,2.17231
4.69e+008,5.90046,2.17888
4.7e+008,5.89469,2.17593
4.71e+008,5.89162,2.17694
4.72e+008,5.88618,2.17966
4.73e+008,5.87799,2.18593
4.74e+008,5.87531,2.18128
4.75e+008,5.86515,2.18274
4.76e+008,5.86128,2.18832
4.77e+008,5.85975,2.19031
4.78e+008,5.84528,2.18636
4.79e+008,5.84011,2.1907
4.8e+008,5.82832,2.19366
4.81e+008,5.82255,2.1942
4.82e+008,5.81992,2.18769
4.83e+008,5.8116,2.18611
4.84e+008,5.79648,2.19171
4.85e+008,5.78198,2.19464
4.86e+008,5.77997,2.19074
4.87e+008,5.76765,2.19008
4.88e+008,5.75903,2.18996
4.89e+008,5.7488,2.19107
4.9e+008,5.73597,2.19122
4.91e+008,5.72921,2.18946
4.92e+008,5.70991,2.18915
4.93e+008,5.70151,2.18973
4.94e+008,5.69236,2.19217
4.95e+008,5.67761,2.19015
4.96e+008,5.66165,2.19061
4.97e+008,5.65229,2.18856
4.98e+008,5.63949,2.19084
4.99e+008,5.62486,2.18697
5e+008,5.61017,2.18944

