Coaxial Probe Method (Opt. 004) 20.0.22083101
Keysight Technologies,P9371A,MY57211751,A.17.25.05

Ch 1
Port:, 1
Probe:, High temperature
Std1:, Air
Std2:, Short
Std3:, 25.0C water
IFBW:, 300.000000 Hz
Power:, -5.000000 dBm
Date:,"Saturday, July 06, 2024 17:56:45"
frequency(Hz),e',e''
3e+008,6.31489,1.67739
3.01e+008,6.32131,1.6784
3.02e+008,6.31491,1.68521
3.03e+008,6.3249,1.69561
3.04e+008,6.32256,1.69808
3.05e+008,6.32985,1.69762
3.06e+008,6.32388,1.70487
3.07e+008,6.33032,1.71273
3.08e+008,6.32492,1.72246
3.09e+008,6.33145,1.72511
3.1e+008,6.32971,1.73081
3.11e+008,6.32988,1.73847
3.12e+008,6.32712,1.74827
3.13e+008,6.3458,1.73963
3.14e+008,6.35105,1.74085
3.15e+008,6.35321,1.75028
3.16e+008,6.36763,1.75208
3.17e+008,6.36149,1.76237
3.18e+008,6.3641,1.7674
3.19e+008,6.3651,1.76281
3.2e+008,6.36228,1.77471
3.21e+008,6.37015,1.78398
3.22e+008,6.36986,1.78378
3.23e+008,6.37738,1.79452
3.24e+008,6.37581,1.79994
3.25e+008,6.37299,1.80858
3.26e+008,6.37408,1.81292
3.27e+008,6.37546,1.81728
3.28e+008,6.37797,1.82617
3.29e+008,6.37685,1.82441
3.3e+008,6.37491,1.83496
3.31e+008,6.3766,1.84178
3.32e+008,6.37163,1.84592
3.33e+008,6.37105,1.85196
3.34e+008,6.36824,1.85373
3.35e+008,6.36727,1.85953
3.36e+008,6.36523,1.86497
3.37e+008,6.36405,1.86343
3.38e+008,6.36619,1.87471
3.39e+008,6.35985,1.87816
3.4e+008,6.35021,1.88677
3.41e+008,6.34677,1.88944
3.42e+008,6.3503,1.8951
3.43e+008,6.34551,1.89618
3.44e+008,6.33986,1.89416
3.45e+008,6.34464,1.90505
3.46e+008,6.33939,1.90209
3.47e+008,6.33427,1.90117
3.48e+008,6.32569,1.90345
3.49e+008,6.32033,1.91637
3.5e+008,6.31331,1.91264
3.51e+008,6.30871,1.91531
3.52e+008,6.3044,1.92077
3.53e+008,6.29739,1.92075
3.54e+008,6.2877,1.92704
3.55e+008,6.27836,1.931
3.56e+008,6.27432,1.93117
3.57e+008,6.26361,1.93429
3.58e+008,6.2504,1.93283
3.59e+008,6.24186,1.94267
3.6e+008,6.2336,1.94601
3.61e+008,6.22229,1.94324
3.62e+008,6.20943,1.94761
3.63e+008,6.19469,1.95058
3.64e+008,6.18663,1.95182
3.65e+008,6.17185,1.95877
3.66e+008,6.16387,1.95461
3.67e+008,6.14878,1.96244
3.68e+008,6.14441,1.96343
3.69e+008,6.12786,1.96479
3.7e+008,6.11293,1.96062
3.71e+008,6.09914,1.95425
3.72e+008,6.09097,1.96167
3.73e+008,6.08014,1.96591
3.74e+008,6.0676,1.96153
3.75e+008,6.05758,1.9694
3.76e+008,6.04819,1.96285
3.77e+008,6.03691,1.96086
3.78e+008,6.01829,1.96594
3.79e+008,5.99938,1.97356
3.8e+008,5.98239,1.9699
3.81e+008,5.97068,1.97495
3.82e+008,5.95571,1.97489
3.83e+008,5.93707,1.97812
3.84e+008,5.92367,1.98528
3.85e+008,5.90305,1.98804
3.86e+008,5.89437,1.98638
3.87e+008,5.87952,1.99084
3.88e+008,5.86702,1.98695
3.89e+008,5.84861,1.98972
3.9e+008,5.83483,1.99212
3.91e+008,5.81755,1.9993
3.92e+008,5.80313,2.00196
3.93e+008,5.79061,2.00316
3.94e+008,5.77301,2.00162
3.95e+008,5.7568,2.00544
3.96e+008,5.75356,2.00829
3.97e+008,5.74109,2.00796
3.98e+008,5.72463,2.00762
3.99e+008,5.72185,2.00803
4e+008,5.70846,2.01227
4.01e+008,5.70303,2.00818
4.02e+008,5.69134,2.01467
4.03e+008,5.68395,2.01792
4.04e+008,5.6697,2.01539
4.05e+008,5.6583,2.01913
4.06e+008,5.65552,2.01914
4.07e+008,5.64856,2.01962
4.08e+008,5.64126,2.02097
4.09e+008,5.63435,2.01954
4.1e+008,5.62735,2.02
4.11e+008,5.625,2.02501
4.12e+008,5.6159,2.03067
4.13e+008,5.61067,2.02618
4.14e+008,5.60432,2.02753
4.15e+008,5.59821,2.03505
4.16e+008,5.5897,2.03552
4.17e+008,5.58769,2.0386
4.18e+008,5.59447,2.0394
4.19e+008,5.597,2.03388
4.2e+008,5.5992,2.03377
4.21e+008,5.59844,2.03838
4.22e+008,5.60269,2.03641
4.23e+008,5.60181,2.03936
4.24e+008,5.60546,2.04038
4.25e+008,5.60654,2.04367
4.26e+008,5.61367,2.04448
4.27e+008,5.61607,2.04012
4.28e+008,5.62182,2.04007
4.29e+008,5.62998,2.04047
4.3e+008,5.63923,2.03832
4.31e+008,5.64321,2.03839
4.32e+008,5.65041,2.03481
4.33e+008,5.65651,2.03891
4.34e+008,5.66186,2.03637
4.35e+008,5.67055,2.04211
4.36e+008,5.67263,2.04138
4.37e+008,5.68029,2.03978
4.38e+008,5.68491,2.04193
4.39e+008,5.69619,2.0418
4.4e+008,5.69765,2.04947
4.41e+008,5.70377,2.04533
4.42e+008,5.70915,2.05377
4.43e+008,5.71611,2.05017
4.44e+008,5.7169,2.05195
4.45e+008,5.72223,2.05636
4.46e+008,5.71842,2.05487
4.47e+008,5.72037,2.06537
4.48e+008,5.72261,2.063
4.49e+008,5.72311,2.06344
4.5e+008,5.72653,2.07058
4.51e+008,5.72554,2.07611
4.52e+008,5.72577,2.07917
4.53e+008,5.73158,2.08188
4.54e+008,5.73767,2.08886
4.55e+008,5.73276,2.08252
4.56e+008,5.73957,2.08358
4.57e+008,5.73971,2.08663
4.58e+008,5.73908,2.09298
4.59e+008,5.73707,2.09529
4.6e+008,5.74098,2.09746
4.61e+008,5.73196,2.09744
4.62e+008,5.7329,2.10522
4.63e+008,5.72918,2.10339
4.64e+008,5.72536,2.11129
4.65e+008,5.72362,2.11553
4.66e+008,5.71954,2.11238
4.67e+008,5.72356,2.108
4.68e+008,5.71909,2.11223
4.69e+008,5.71864,2.1158
4.7e+008,5.71635,2.11329
4.71e+008,5.70821,2.11528
4.72e+008,5.70407,2.11782
4.73e+008,5.69786,2.12484
4.74e+008,5.69484,2.12493
4.75e+008,5.68585,2.12438
4.76e+008,5.68002,2.12519
4.77e+008,5.67625,2.12737
4.78e+008,5.66544,2.12631
4.79e+008,5.6587,2.13236
4.8e+008,5.6523,2.13138
4.81e+008,5.64749,2.13264
4.82e+008,5.64239,2.12868
4.83e+008,5.63513,2.1265
4.84e+008,5.62271,2.13168
4.85e+008,5.60927,2.1343
4.86e+008,5.60479,2.12821
4.87e+008,5.59613,2.12964
4.88e+008,5.5918,2.13015
4.89e+008,5.57754,2.13061
4.9e+008,5.56771,2.13185
4.91e+008,5.56096,2.13031
4.92e+008,5.54961,2.13016
4.93e+008,5.53871,2.12929
4.94e+008,5.52938,2.13045
4.95e+008,5.51948,2.13236
4.96e+008,5.50574,2.13071
4.97e+008,5.49541,2.12828
4.98e+008,5.48414,2.13108
4.99e+008,5.47193,2.13035
5e+008,5.45884,2.12986

