Coaxial Probe Method (Opt. 004) 20.0.22083101
Keysight Technologies,P9371A,MY57211751,A.17.25.05

Ch 1
Port:, 1
Probe:, High temperature
Std1:, Air
Std2:, Short
Std3:, 25.0C water
IFBW:, 300.000000 Hz
Power:, -5.000000 dBm
Date:,"Saturday, July 06, 2024 18:02:02"
frequency(Hz),e',e''
3e+008,1.82579,0.347984
3.01e+008,1.83534,0.342214
3.02e+008,1.83907,0.347625
3.03e+008,1.85122,0.348661
3.04e+008,1.85041,0.34836
3.05e+008,1.86526,0.34658
3.06e+008,1.86658,0.351213
3.07e+008,1.87255,0.360225
3.08e+008,1.88016,0.355805
3.09e+008,1.8911,0.363838
3.1e+008,1.8989,0.359202
3.11e+008,1.9021,0.367507
3.12e+008,1.90964,0.369474
3.13e+008,1.92783,0.364559
3.14e+008,1.93361,0.36792
3.15e+008,1.93839,0.371174
3.16e+008,1.95716,0.375173
3.17e+008,1.95641,0.383763
3.18e+008,1.96093,0.374733
3.19e+008,1.96286,0.373808
3.2e+008,1.97505,0.379793
3.21e+008,1.98875,0.386779
3.22e+008,1.99066,0.387335
3.23e+008,2.00399,0.389046
3.24e+008,2.00458,0.393974
3.25e+008,2.01103,0.402562
3.26e+008,2.01867,0.397957
3.27e+008,2.02886,0.398402
3.28e+008,2.02778,0.399822
3.29e+008,2.03121,0.404016
3.3e+008,2.03431,0.403564
3.31e+008,2.04162,0.405536
3.32e+008,2.04421,0.407349
3.33e+008,2.0479,0.406779
3.34e+008,2.05139,0.404713
3.35e+008,2.05958,0.409172
3.36e+008,2.0551,0.407476
3.37e+008,2.0614,0.406132
3.38e+008,2.06523,0.417223
3.39e+008,2.06324,0.413581
3.4e+008,2.06661,0.417975
3.41e+008,2.0642,0.414376
3.42e+008,2.06189,0.409227
3.43e+008,2.0691,0.414615
3.44e+008,2.06019,0.41988
3.45e+008,2.06743,0.415886
3.46e+008,2.06534,0.415572
3.47e+008,2.06444,0.412528
3.48e+008,2.06233,0.410311
3.49e+008,2.05843,0.411073
3.5e+008,2.05993,0.410181
3.51e+008,2.05474,0.408764
3.52e+008,2.04688,0.409832
3.53e+008,2.0458,0.40631
3.54e+008,2.04324,0.407185
3.55e+008,2.03949,0.405159
3.56e+008,2.0311,0.406289
3.57e+008,2.02772,0.408567
3.58e+008,2.01613,0.397641
3.59e+008,2.01796,0.401196
3.6e+008,2.00766,0.399115
3.61e+008,2.00363,0.395937
3.62e+008,1.99852,0.393595
3.63e+008,1.98466,0.391416
3.64e+008,1.97699,0.394584
3.65e+008,1.97045,0.395373
3.66e+008,1.9623,0.389262
3.67e+008,1.95566,0.385731
3.68e+008,1.94789,0.38174
3.69e+008,1.93743,0.385374
3.7e+008,1.9279,0.376249
3.71e+008,1.91669,0.373881
3.72e+008,1.91174,0.37659
3.73e+008,1.90468,0.372827
3.74e+008,1.89702,0.372171
3.75e+008,1.88432,0.370212
3.76e+008,1.8778,0.367236
3.77e+008,1.86805,0.361143
3.78e+008,1.85928,0.359851
3.79e+008,1.84773,0.361698
3.8e+008,1.83401,0.351188
3.81e+008,1.82758,0.354147
3.82e+008,1.81607,0.346549
3.83e+008,1.80649,0.34713
3.84e+008,1.79779,0.353074
3.85e+008,1.78515,0.34627
3.86e+008,1.77747,0.342274
3.87e+008,1.76856,0.340082
3.88e+008,1.75657,0.336572
3.89e+008,1.74987,0.336106
3.9e+008,1.74096,0.336903
3.91e+008,1.73487,0.338156
3.92e+008,1.72363,0.328309
3.93e+008,1.71197,0.332288
3.94e+008,1.70979,0.324854
3.95e+008,1.69844,0.326718
3.96e+008,1.70053,0.321192
3.97e+008,1.69326,0.320328
3.98e+008,1.68096,0.317103
3.99e+008,1.67801,0.31553
4e+008,1.6674,0.317104
4.01e+008,1.66633,0.311064
4.02e+008,1.6587,0.318449
4.03e+008,1.64986,0.315038
4.04e+008,1.64807,0.30884
4.05e+008,1.63778,0.313504
4.06e+008,1.64,0.311657
4.07e+008,1.63694,0.309865
4.08e+008,1.63113,0.307431
4.09e+008,1.62844,0.306725
4.1e+008,1.62728,0.305612
4.11e+008,1.62522,0.308411
4.12e+008,1.61943,0.311531
4.13e+008,1.61622,0.306161
4.14e+008,1.61585,0.304018
4.15e+008,1.61671,0.310039
4.16e+008,1.60756,0.305709
4.17e+008,1.6125,0.30685
4.18e+008,1.60774,0.30785
4.19e+008,1.61112,0.304529
4.2e+008,1.61127,0.307804
4.21e+008,1.61153,0.309839
4.22e+008,1.6134,0.306799
4.23e+008,1.61362,0.309318
4.24e+008,1.62096,0.309791
4.25e+008,1.61544,0.312997
4.26e+008,1.61722,0.315709
4.27e+008,1.62225,0.310442
4.28e+008,1.62465,0.310383
4.29e+008,1.6261,0.307927
4.3e+008,1.63114,0.313254
4.31e+008,1.62889,0.315674
4.32e+008,1.63564,0.313373
4.33e+008,1.63432,0.316753
4.34e+008,1.63999,0.317914
4.35e+008,1.6483,0.320995
4.36e+008,1.64441,0.319504
4.37e+008,1.65115,0.317039
4.38e+008,1.65506,0.321532
4.39e+008,1.66051,0.324463
4.4e+008,1.65986,0.325627
4.41e+008,1.66474,0.328326
4.42e+008,1.66934,0.33095
4.43e+008,1.6735,0.327455
4.44e+008,1.67598,0.329275
4.45e+008,1.68147,0.328687
4.46e+008,1.67921,0.331135
4.47e+008,1.681,0.335086
4.48e+008,1.68661,0.334071
4.49e+008,1.68576,0.336227
4.5e+008,1.6914,0.337394
4.51e+008,1.69476,0.341173
4.52e+008,1.694,0.345818
4.53e+008,1.70165,0.343542
4.54e+008,1.69991,0.350171
4.55e+008,1.70165,0.343999
4.56e+008,1.70454,0.343201
4.57e+008,1.70485,0.346561
4.58e+008,1.70843,0.345413
4.59e+008,1.70698,0.349856
4.6e+008,1.7148,0.356882
4.61e+008,1.70659,0.347671
4.62e+008,1.71173,0.353526
4.63e+008,1.71051,0.350673
4.64e+008,1.71109,0.356727
4.65e+008,1.71219,0.357945
4.66e+008,1.71126,0.351227
4.67e+008,1.71181,0.350354
4.68e+008,1.7093,0.354617
4.69e+008,1.7109,0.357293
4.7e+008,1.70854,0.355107
4.71e+008,1.70307,0.350564
4.72e+008,1.703,0.352331
4.73e+008,1.70137,0.354359
4.74e+008,1.70116,0.352773
4.75e+008,1.69414,0.352671
4.76e+008,1.69604,0.353383
4.77e+008,1.69286,0.350973
4.78e+008,1.68578,0.348165
4.79e+008,1.68329,0.347416
4.8e+008,1.67871,0.346774
4.81e+008,1.67737,0.348897
4.82e+008,1.67466,0.34689
4.83e+008,1.67192,0.341897
4.84e+008,1.66427,0.344444
4.85e+008,1.65773,0.343696
4.86e+008,1.6534,0.336202
4.87e+008,1.64721,0.336221
4.88e+008,1.64636,0.33396
4.89e+008,1.63612,0.335959
4.9e+008,1.63004,0.33402
4.91e+008,1.63029,0.328429
4.92e+008,1.61875,0.330277
4.93e+008,1.61964,0.325497
4.94e+008,1.6124,0.328953
4.95e+008,1.60217,0.328797
4.96e+008,1.59415,0.32239
4.97e+008,1.59274,0.317998
4.98e+008,1.58057,0.320683
4.99e+008,1.57755,0.317513
5e+008,1.56929,0.31588

