Coaxial Probe Method (Opt. 004) 20.0.22083101
Keysight Technologies,P9371A,MY57211751,A.17.25.05

Ch 1
Port:, 1
Probe:, High temperature
Std1:, Air
Std2:, Short
Std3:, 25.0C water
IFBW:, 300.000000 Hz
Power:, -5.000000 dBm
Date:,"Saturday, July 06, 2024 18:42:06"
frequency(Hz),e',e''
3e+008,3.38983,0.806989
3.01e+008,3.3986,0.803708
3.02e+008,3.38833,0.808514
3.03e+008,3.403,0.817521
3.04e+008,3.40237,0.809649
3.05e+008,3.41652,0.813401
3.06e+008,3.41888,0.823366
3.07e+008,3.42514,0.827909
3.08e+008,3.42393,0.828439
3.09e+008,3.44201,0.833085
3.1e+008,3.43815,0.834818
3.11e+008,3.44739,0.838706
3.12e+008,3.44835,0.849717
3.13e+008,3.46614,0.843376
3.14e+008,3.47449,0.84419
3.15e+008,3.48163,0.850833
3.16e+008,3.49087,0.857368
3.17e+008,3.49172,0.860117
3.18e+008,3.50309,0.861375
3.19e+008,3.50863,0.866072
3.2e+008,3.51419,0.866929
3.21e+008,3.52169,0.878526
3.22e+008,3.52379,0.875185
3.23e+008,3.53216,0.88268
3.24e+008,3.53572,0.890305
3.25e+008,3.54164,0.896383
3.26e+008,3.54828,0.899381
3.27e+008,3.55452,0.90085
3.28e+008,3.55275,0.905404
3.29e+008,3.56045,0.90744
3.3e+008,3.56257,0.915124
3.31e+008,3.56412,0.915942
3.32e+008,3.56611,0.920487
3.33e+008,3.56695,0.926523
3.34e+008,3.57447,0.925564
3.35e+008,3.57914,0.93273
3.36e+008,3.57252,0.934481
3.37e+008,3.5765,0.934796
3.38e+008,3.5823,0.941921
3.39e+008,3.57983,0.942847
3.4e+008,3.57905,0.954613
3.41e+008,3.57521,0.947413
3.42e+008,3.57293,0.956114
3.43e+008,3.57524,0.954639
3.44e+008,3.57157,0.955964
3.45e+008,3.57879,0.955611
3.46e+008,3.57279,0.95753
3.47e+008,3.57016,0.96145
3.48e+008,3.56765,0.956999
3.49e+008,3.55866,0.965691
3.5e+008,3.56018,0.962646
3.51e+008,3.55498,0.964613
3.52e+008,3.55316,0.966249
3.53e+008,3.54386,0.963239
3.54e+008,3.53842,0.968534
3.55e+008,3.53318,0.968827
3.56e+008,3.52522,0.969067
3.57e+008,3.52017,0.967688
3.58e+008,3.50166,0.968522
3.59e+008,3.50505,0.974258
3.6e+008,3.49584,0.968756
3.61e+008,3.48434,0.968714
3.62e+008,3.48248,0.967165
3.63e+008,3.46376,0.970643
3.64e+008,3.45693,0.972717
3.65e+008,3.4507,0.972121
3.66e+008,3.44197,0.967713
3.67e+008,3.42832,0.966723
3.68e+008,3.41905,0.97086
3.69e+008,3.40839,0.965618
3.7e+008,3.3936,0.959073
3.71e+008,3.38439,0.960317
3.72e+008,3.37029,0.962782
3.73e+008,3.36112,0.964317
3.74e+008,3.35626,0.962233
3.75e+008,3.34276,0.961474
3.76e+008,3.33181,0.95745
3.77e+008,3.32137,0.949219
3.78e+008,3.30883,0.950637
3.79e+008,3.30057,0.953688
3.8e+008,3.28565,0.94507
3.81e+008,3.27488,0.949126
3.82e+008,3.26021,0.947005
3.83e+008,3.24693,0.948647
3.84e+008,3.2331,0.950921
3.85e+008,3.21956,0.94679
3.86e+008,3.21095,0.944767
3.87e+008,3.20218,0.943146
3.88e+008,3.18999,0.937261
3.89e+008,3.1794,0.936167
3.9e+008,3.16735,0.939656
3.91e+008,3.15424,0.943616
3.92e+008,3.14495,0.934999
3.93e+008,3.13655,0.936384
3.94e+008,3.12377,0.931835
3.95e+008,3.11225,0.936251
3.96e+008,3.10876,0.929132
3.97e+008,3.09947,0.934396
3.98e+008,3.08709,0.929499
3.99e+008,3.08812,0.926126
4e+008,3.07763,0.931229
4.01e+008,3.07328,0.927799
4.02e+008,3.06786,0.931071
4.03e+008,3.06036,0.932089
4.04e+008,3.05668,0.920844
4.05e+008,3.04665,0.928374
4.06e+008,3.04508,0.926592
4.07e+008,3.03522,0.925908
4.08e+008,3.03884,0.929275
4.09e+008,3.03029,0.922734
4.1e+008,3.02855,0.925744
4.11e+008,3.0295,0.926373
4.12e+008,3.02391,0.930863
4.13e+008,3.02038,0.926033
4.14e+008,3.01878,0.923841
4.15e+008,3.0181,0.932092
4.16e+008,3.01747,0.926625
4.17e+008,3.01272,0.931569
4.18e+008,3.01779,0.929091
4.19e+008,3.02181,0.930403
4.2e+008,3.02621,0.933702
4.21e+008,3.02687,0.933804
4.22e+008,3.03023,0.935135
4.23e+008,3.03204,0.937544
4.24e+008,3.03739,0.938634
4.25e+008,3.04113,0.93906
4.26e+008,3.04314,0.944101
4.27e+008,3.04963,0.94512
4.28e+008,3.0574,0.939664
4.29e+008,3.06041,0.943518
4.3e+008,3.07115,0.946368
4.31e+008,3.07625,0.949099
4.32e+008,3.08353,0.945994
4.33e+008,3.08731,0.950931
4.34e+008,3.0959,0.949853
4.35e+008,3.10429,0.955612
4.36e+008,3.11053,0.956924
4.37e+008,3.12033,0.955675
4.38e+008,3.12548,0.959891
4.39e+008,3.13318,0.962701
4.4e+008,3.13836,0.967744
4.41e+008,3.14616,0.968111
4.42e+008,3.15262,0.974987
4.43e+008,3.16009,0.975257
4.44e+008,3.16369,0.97557
4.45e+008,3.17011,0.979832
4.46e+008,3.17341,0.981632
4.47e+008,3.1777,0.988583
4.48e+008,3.18559,0.98615
4.49e+008,3.18441,0.988359
4.5e+008,3.19634,0.996368
4.51e+008,3.19742,1.00116
4.52e+008,3.20207,1.00516
4.53e+008,3.21142,1.00756
4.54e+008,3.2125,1.01243
4.55e+008,3.21584,1.01235
4.56e+008,3.22659,1.01319
4.57e+008,3.22518,1.01486
4.58e+008,3.22901,1.02312
4.59e+008,3.23031,1.02517
4.6e+008,3.23679,1.02879
4.61e+008,3.23244,1.02479
4.62e+008,3.23868,1.03291
4.63e+008,3.23776,1.03639
4.64e+008,3.23964,1.04148
4.65e+008,3.24109,1.04231
4.66e+008,3.24477,1.0433
4.67e+008,3.24753,1.04399
4.68e+008,3.24606,1.04833
4.69e+008,3.24767,1.05145
4.7e+008,3.24725,1.0469
4.71e+008,3.2457,1.04893
4.72e+008,3.24377,1.04924
4.73e+008,3.24111,1.05421
4.74e+008,3.24156,1.05767
4.75e+008,3.2367,1.05463
4.76e+008,3.23589,1.05617
4.77e+008,3.2319,1.05943
4.78e+008,3.22808,1.05551
4.79e+008,3.22647,1.06147
4.8e+008,3.21598,1.0582
4.81e+008,3.21447,1.05844
4.82e+008,3.21337,1.0573
4.83e+008,3.21091,1.05558
4.84e+008,3.19997,1.05893
4.85e+008,3.19253,1.0627
4.86e+008,3.19061,1.0551
4.87e+008,3.18236,1.05484
4.88e+008,3.18142,1.05446
4.89e+008,3.17249,1.05435
4.9e+008,3.16402,1.05414
4.91e+008,3.1594,1.0517
4.92e+008,3.14776,1.04954
4.93e+008,3.14508,1.04525
4.94e+008,3.13601,1.05039
4.95e+008,3.12515,1.04969
4.96e+008,3.11526,1.04478
4.97e+008,3.11134,1.04488
4.98e+008,3.10036,1.04642
4.99e+008,3.09154,1.04068
5e+008,3.07912,1.03944

