Coaxial Probe Method (Opt. 004) 20.0.22083101
Keysight Technologies,P9371A,MY57211751,A.17.25.05

Ch 1
Port:, 1
Probe:, High temperature
Std1:, Air
Std2:, Short
Std3:, 25.0C water
IFBW:, 300.000000 Hz
Power:, -5.000000 dBm
Date:,"Saturday, July 06, 2024 18:28:43"
frequency(Hz),e',e''
3e+008,3.60985,0.883066
3.01e+008,3.61655,0.883963
3.02e+008,3.61646,0.88145
3.03e+008,3.62538,0.894579
3.04e+008,3.62743,0.895541
3.05e+008,3.64098,0.898527
3.06e+008,3.64033,0.903006
3.07e+008,3.64291,0.904974
3.08e+008,3.64117,0.906527
3.09e+008,3.65199,0.914378
3.1e+008,3.65691,0.92066
3.11e+008,3.66525,0.919422
3.12e+008,3.66111,0.930833
3.13e+008,3.68341,0.925861
3.14e+008,3.69021,0.923396
3.15e+008,3.69512,0.931456
3.16e+008,3.71188,0.935242
3.17e+008,3.7156,0.936709
3.18e+008,3.71705,0.94626
3.19e+008,3.72186,0.940839
3.2e+008,3.7239,0.947129
3.21e+008,3.73526,0.952929
3.22e+008,3.74419,0.95297
3.23e+008,3.74825,0.963315
3.24e+008,3.75734,0.970822
3.25e+008,3.75838,0.971833
3.26e+008,3.76223,0.970212
3.27e+008,3.76802,0.978625
3.28e+008,3.77114,0.981831
3.29e+008,3.77652,0.978193
3.3e+008,3.77744,0.989421
3.31e+008,3.78201,0.988367
3.32e+008,3.78452,0.993388
3.33e+008,3.78744,1.00049
3.34e+008,3.78771,1.0007
3.35e+008,3.78923,1.00267
3.36e+008,3.79039,1.00448
3.37e+008,3.79179,1.00931
3.38e+008,3.79709,1.01208
3.39e+008,3.79621,1.01593
3.4e+008,3.79403,1.01767
3.41e+008,3.79625,1.02002
3.42e+008,3.78859,1.01318
3.43e+008,3.79552,1.02099
3.44e+008,3.79298,1.02126
3.45e+008,3.79622,1.02401
3.46e+008,3.78938,1.02279
3.47e+008,3.79239,1.02176
3.48e+008,3.78866,1.0255
3.49e+008,3.78344,1.02365
3.5e+008,3.78211,1.02464
3.51e+008,3.77663,1.02379
3.52e+008,3.77296,1.02903
3.53e+008,3.76793,1.02683
3.54e+008,3.76353,1.03275
3.55e+008,3.75943,1.03266
3.56e+008,3.7491,1.03387
3.57e+008,3.73895,1.03238
3.58e+008,3.72725,1.02963
3.59e+008,3.7306,1.0343
3.6e+008,3.71886,1.02381
3.61e+008,3.71007,1.02859
3.62e+008,3.7062,1.02865
3.63e+008,3.69034,1.03596
3.64e+008,3.68487,1.03655
3.65e+008,3.67608,1.03674
3.66e+008,3.66465,1.0331
3.67e+008,3.65363,1.03389
3.68e+008,3.64377,1.03252
3.69e+008,3.63611,1.0347
3.7e+008,3.62579,1.02754
3.71e+008,3.61273,1.02446
3.72e+008,3.6045,1.02703
3.73e+008,3.59622,1.02938
3.74e+008,3.58803,1.0279
3.75e+008,3.57381,1.02676
3.76e+008,3.56416,1.02367
3.77e+008,3.55467,1.02038
3.78e+008,3.54442,1.02221
3.79e+008,3.52785,1.02569
3.8e+008,3.51556,1.01753
3.81e+008,3.50385,1.0181
3.82e+008,3.48935,1.0217
3.83e+008,3.4783,1.01613
3.84e+008,3.46533,1.02309
3.85e+008,3.45003,1.01896
3.86e+008,3.4385,1.02339
3.87e+008,3.42484,1.02221
3.88e+008,3.41705,1.01546
3.89e+008,3.40542,1.01361
3.9e+008,3.39405,1.0189
3.91e+008,3.38173,1.02074
3.92e+008,3.3701,1.01573
3.93e+008,3.35704,1.01886
3.94e+008,3.34589,1.01523
3.95e+008,3.33944,1.01859
3.96e+008,3.32804,1.01584
3.97e+008,3.32552,1.01441
3.98e+008,3.31002,1.01385
3.99e+008,3.30338,1.01373
4e+008,3.29351,1.01721
4.01e+008,3.29294,1.01255
4.02e+008,3.28375,1.01623
4.03e+008,3.27488,1.0196
4.04e+008,3.27094,1.01134
4.05e+008,3.26268,1.01694
4.06e+008,3.25636,1.01875
4.07e+008,3.2488,1.01504
4.08e+008,3.2465,1.02224
4.09e+008,3.2449,1.01416
4.1e+008,3.23896,1.01758
4.11e+008,3.23496,1.01586
4.12e+008,3.22888,1.0192
4.13e+008,3.22571,1.02088
4.14e+008,3.2269,1.01823
4.15e+008,3.22425,1.0208
4.16e+008,3.21729,1.02013
4.17e+008,3.21706,1.02606
4.18e+008,3.21851,1.02875
4.19e+008,3.22373,1.02344
4.2e+008,3.22415,1.02223
4.21e+008,3.22128,1.02301
4.22e+008,3.22521,1.02715
4.23e+008,3.22876,1.02904
4.24e+008,3.23402,1.03351
4.25e+008,3.22952,1.03189
4.26e+008,3.23541,1.03179
4.27e+008,3.24076,1.03492
4.28e+008,3.24564,1.0336
4.29e+008,3.25016,1.0313
4.3e+008,3.25809,1.03276
4.31e+008,3.26104,1.03994
4.32e+008,3.26836,1.03435
4.33e+008,3.27438,1.0376
4.34e+008,3.28137,1.03934
4.35e+008,3.28744,1.04358
4.36e+008,3.28879,1.04151
4.37e+008,3.29753,1.03772
4.38e+008,3.29936,1.04305
4.39e+008,3.30915,1.04693
4.4e+008,3.31181,1.04831
4.41e+008,3.31984,1.04893
4.42e+008,3.32312,1.05478
4.43e+008,3.33159,1.05612
4.44e+008,3.33356,1.05912
4.45e+008,3.33877,1.0568
4.46e+008,3.33975,1.05997
4.47e+008,3.34167,1.06311
4.48e+008,3.34732,1.06002
4.49e+008,3.34653,1.06374
4.5e+008,3.35338,1.0697
4.51e+008,3.35469,1.07486
4.52e+008,3.35745,1.07826
4.53e+008,3.36783,1.07857
4.54e+008,3.36959,1.08588
4.55e+008,3.37098,1.07983
4.56e+008,3.37916,1.08448
4.57e+008,3.37311,1.08412
4.58e+008,3.3808,1.085
4.59e+008,3.38011,1.09075
4.6e+008,3.38143,1.09258
4.61e+008,3.37978,1.09235
4.62e+008,3.38064,1.09421
4.63e+008,3.3822,1.09462
4.64e+008,3.3869,1.10301
4.65e+008,3.38418,1.10429
4.66e+008,3.3859,1.10416
4.67e+008,3.38576,1.0987
4.68e+008,3.37915,1.10773
4.69e+008,3.38257,1.10888
4.7e+008,3.38331,1.10585
4.71e+008,3.37686,1.10575
4.72e+008,3.3756,1.10772
4.73e+008,3.37165,1.10813
4.74e+008,3.3716,1.10776
4.75e+008,3.36433,1.10607
4.76e+008,3.36432,1.10971
4.77e+008,3.36108,1.10985
4.78e+008,3.35527,1.10506
4.79e+008,3.35161,1.11277
4.8e+008,3.34309,1.11158
4.81e+008,3.34118,1.11324
4.82e+008,3.33927,1.11092
4.83e+008,3.33464,1.10646
4.84e+008,3.32701,1.11066
4.85e+008,3.31785,1.11217
4.86e+008,3.3119,1.10386
4.87e+008,3.30408,1.10438
4.88e+008,3.30318,1.10424
4.89e+008,3.29315,1.10156
4.9e+008,3.28478,1.10265
4.91e+008,3.27757,1.10164
4.92e+008,3.2672,1.09986
4.93e+008,3.26345,1.09674
4.94e+008,3.25504,1.09853
4.95e+008,3.24703,1.09922
4.96e+008,3.23624,1.09533
4.97e+008,3.23094,1.09496
4.98e+008,3.21782,1.09795
4.99e+008,3.21063,1.0923
5e+008,3.20031,1.09188

