Coaxial Probe Method (Opt. 004) 20.0.22083101
Keysight Technologies,P9371A,MY57211751,A.17.25.05

Ch 1
Port:, 1
Probe:, High temperature
Std1:, Air
Std2:, Short
Std3:, 25.0C water
IFBW:, 300.000000 Hz
Power:, -5.000000 dBm
Date:,"Saturday, July 06, 2024 18:46:54"
frequency(Hz),e',e''
3e+008,2.72922,0.632897
3.01e+008,2.73116,0.633432
3.02e+008,2.73749,0.636708
3.03e+008,2.74342,0.64519
3.04e+008,2.75074,0.639843
3.05e+008,2.75287,0.639264
3.06e+008,2.75591,0.64409
3.07e+008,2.76119,0.650876
3.08e+008,2.76289,0.655037
3.09e+008,2.77231,0.662709
3.1e+008,2.77201,0.663445
3.11e+008,2.78499,0.666775
3.12e+008,2.78762,0.672798
3.13e+008,2.79949,0.668276
3.14e+008,2.80654,0.670845
3.15e+008,2.81179,0.674707
3.16e+008,2.8243,0.678036
3.17e+008,2.82732,0.680622
3.18e+008,2.83289,0.684682
3.19e+008,2.83913,0.678603
3.2e+008,2.84267,0.686823
3.21e+008,2.85138,0.693746
3.22e+008,2.85561,0.694562
3.23e+008,2.86379,0.700267
3.24e+008,2.86875,0.705209
3.25e+008,2.87225,0.707485
3.26e+008,2.87596,0.709173
3.27e+008,2.88673,0.716997
3.28e+008,2.88781,0.718884
3.29e+008,2.8929,0.723516
3.3e+008,2.89525,0.724731
3.31e+008,2.9048,0.727245
3.32e+008,2.90381,0.729223
3.33e+008,2.90544,0.731082
3.34e+008,2.91128,0.732852
3.35e+008,2.91648,0.738595
3.36e+008,2.90821,0.739337
3.37e+008,2.91091,0.738815
3.38e+008,2.92044,0.749882
3.39e+008,2.91773,0.746289
3.4e+008,2.91647,0.754742
3.41e+008,2.91753,0.754299
3.42e+008,2.91854,0.746166
3.43e+008,2.92061,0.756649
3.44e+008,2.92,0.7548
3.45e+008,2.92375,0.758015
3.46e+008,2.91999,0.759597
3.47e+008,2.91943,0.756226
3.48e+008,2.9168,0.757979
3.49e+008,2.91148,0.765968
3.5e+008,2.9159,0.759186
3.51e+008,2.91065,0.760898
3.52e+008,2.90477,0.767024
3.53e+008,2.90423,0.758917
3.54e+008,2.89677,0.766648
3.55e+008,2.89777,0.761098
3.56e+008,2.89035,0.765357
3.57e+008,2.88372,0.7631
3.58e+008,2.87075,0.76051
3.59e+008,2.869,0.770638
3.6e+008,2.86385,0.761683
3.61e+008,2.8577,0.758783
3.62e+008,2.85258,0.755792
3.63e+008,2.83873,0.769006
3.64e+008,2.83809,0.765276
3.65e+008,2.82566,0.765026
3.66e+008,2.81678,0.757462
3.67e+008,2.81108,0.757822
3.68e+008,2.80162,0.758116
3.69e+008,2.79528,0.761199
3.7e+008,2.78775,0.745579
3.71e+008,2.769,0.75209
3.72e+008,2.76813,0.750224
3.73e+008,2.75757,0.754063
3.74e+008,2.75218,0.749097
3.75e+008,2.73904,0.747168
3.76e+008,2.73448,0.744147
3.77e+008,2.72318,0.743139
3.78e+008,2.7136,0.739543
3.79e+008,2.70339,0.742404
3.8e+008,2.68885,0.7364
3.81e+008,2.68182,0.739642
3.82e+008,2.66432,0.734923
3.83e+008,2.65689,0.734861
3.84e+008,2.65069,0.736731
3.85e+008,2.6327,0.735265
3.86e+008,2.62632,0.729828
3.87e+008,2.61998,0.730976
3.88e+008,2.60854,0.729095
3.89e+008,2.60081,0.721147
3.9e+008,2.58728,0.72465
3.91e+008,2.58231,0.73085
3.92e+008,2.57401,0.724355
3.93e+008,2.55693,0.722527
3.94e+008,2.54981,0.720261
3.95e+008,2.54496,0.719314
3.96e+008,2.54248,0.715454
3.97e+008,2.53561,0.713277
3.98e+008,2.52129,0.715424
3.99e+008,2.51521,0.715264
4e+008,2.50984,0.71241
4.01e+008,2.50338,0.708418
4.02e+008,2.49768,0.714213
4.03e+008,2.49247,0.710262
4.04e+008,2.49053,0.708859
4.05e+008,2.4827,0.712061
4.06e+008,2.48134,0.710638
4.07e+008,2.47608,0.710893
4.08e+008,2.47162,0.710754
4.09e+008,2.46727,0.70483
4.1e+008,2.46493,0.709706
4.11e+008,2.46499,0.708783
4.12e+008,2.46221,0.710168
4.13e+008,2.45627,0.709976
4.14e+008,2.45746,0.706919
4.15e+008,2.45345,0.712835
4.16e+008,2.44893,0.705353
4.17e+008,2.45173,0.712958
4.18e+008,2.4496,0.713896
4.19e+008,2.45494,0.712011
4.2e+008,2.45744,0.713111
4.21e+008,2.45792,0.713883
4.22e+008,2.4582,0.714008
4.23e+008,2.4627,0.711518
4.24e+008,2.46565,0.717289
4.25e+008,2.46527,0.716853
4.26e+008,2.47166,0.719439
4.27e+008,2.47592,0.720839
4.28e+008,2.48066,0.7199
4.29e+008,2.48406,0.717739
4.3e+008,2.48739,0.723592
4.31e+008,2.49169,0.724053
4.32e+008,2.49874,0.722626
4.33e+008,2.50383,0.728825
4.34e+008,2.50901,0.726682
4.35e+008,2.51318,0.729141
4.36e+008,2.51961,0.730022
4.37e+008,2.52733,0.730853
4.38e+008,2.53246,0.732652
4.39e+008,2.53746,0.738561
4.4e+008,2.53805,0.738583
4.41e+008,2.54612,0.73834
4.42e+008,2.54811,0.745439
4.43e+008,2.55813,0.742879
4.44e+008,2.55998,0.744849
4.45e+008,2.5642,0.74864
4.46e+008,2.56486,0.748685
4.47e+008,2.56612,0.756217
4.48e+008,2.57511,0.753203
4.49e+008,2.57644,0.753454
4.5e+008,2.58177,0.758367
4.51e+008,2.58298,0.766255
4.52e+008,2.58437,0.769156
4.53e+008,2.59108,0.766845
4.54e+008,2.59525,0.774033
4.55e+008,2.59682,0.771157
4.56e+008,2.60422,0.774999
4.57e+008,2.60368,0.776893
4.58e+008,2.60676,0.781358
4.59e+008,2.60807,0.782759
4.6e+008,2.61097,0.781938
4.61e+008,2.60944,0.782565
4.62e+008,2.61209,0.784064
4.63e+008,2.61117,0.790209
4.64e+008,2.61498,0.79158
4.65e+008,2.61359,0.798798
4.66e+008,2.61432,0.794895
4.67e+008,2.6212,0.793987
4.68e+008,2.61484,0.797295
4.69e+008,2.618,0.79933
4.7e+008,2.61326,0.795697
4.71e+008,2.61459,0.798324
4.72e+008,2.61432,0.799117
4.73e+008,2.60869,0.79987
4.74e+008,2.60802,0.800403
4.75e+008,2.60188,0.798075
4.76e+008,2.60332,0.799281
4.77e+008,2.60154,0.801463
4.78e+008,2.59449,0.799127
4.79e+008,2.59409,0.800762
4.8e+008,2.58521,0.800176
4.81e+008,2.58467,0.803593
4.82e+008,2.58134,0.799597
4.83e+008,2.57686,0.795526
4.84e+008,2.57081,0.798115
4.85e+008,2.56195,0.799435
4.86e+008,2.56195,0.79434
4.87e+008,2.54977,0.793001
4.88e+008,2.55316,0.791654
4.89e+008,2.54427,0.794006
4.9e+008,2.53547,0.792525
4.91e+008,2.53281,0.785361
4.92e+008,2.5202,0.78705
4.93e+008,2.51751,0.787699
4.94e+008,2.51169,0.789249
4.95e+008,2.50206,0.786368
4.96e+008,2.49093,0.782878
4.97e+008,2.48844,0.781334
4.98e+008,2.47916,0.781106
4.99e+008,2.47305,0.773829
5e+008,2.46164,0.774587

