Coaxial Probe Method (Opt. 004) 20.0.22083101
Keysight Technologies,P9371A,MY57211751,A.17.25.05

Ch 1
Port:, 1
Probe:, High temperature
Std1:, Air
Std2:, Short
Std3:, 25.0C water
IFBW:, 300.000000 Hz
Power:, -5.000000 dBm
Date:,"Saturday, July 06, 2024 18:23:16"
frequency(Hz),e',e''
3e+008,2.8146,0.646632
3.01e+008,2.82307,0.645238
3.02e+008,2.82021,0.649294
3.03e+008,2.83466,0.657858
3.04e+008,2.83814,0.656591
3.05e+008,2.84336,0.65525
3.06e+008,2.83992,0.652902
3.07e+008,2.84952,0.660252
3.08e+008,2.84717,0.663129
3.09e+008,2.85673,0.669029
3.1e+008,2.86002,0.669044
3.11e+008,2.86582,0.682124
3.12e+008,2.86256,0.683751
3.13e+008,2.87306,0.675102
3.14e+008,2.88983,0.680013
3.15e+008,2.89123,0.683688
3.16e+008,2.9025,0.687604
3.17e+008,2.90274,0.690968
3.18e+008,2.91029,0.691753
3.19e+008,2.91264,0.686868
3.2e+008,2.91318,0.699358
3.21e+008,2.92738,0.698783
3.22e+008,2.92416,0.701618
3.23e+008,2.93766,0.707277
3.24e+008,2.93672,0.710382
3.25e+008,2.93253,0.714684
3.26e+008,2.94165,0.715028
3.27e+008,2.94967,0.718206
3.28e+008,2.94888,0.722351
3.29e+008,2.95206,0.720166
3.3e+008,2.95665,0.726039
3.31e+008,2.96238,0.728186
3.32e+008,2.96452,0.727197
3.33e+008,2.96393,0.734651
3.34e+008,2.9614,0.735102
3.35e+008,2.96668,0.735808
3.36e+008,2.95855,0.739712
3.37e+008,2.96174,0.736865
3.38e+008,2.96518,0.743064
3.39e+008,2.96836,0.743013
3.4e+008,2.96386,0.74836
3.41e+008,2.96535,0.750998
3.42e+008,2.95933,0.745699
3.43e+008,2.95606,0.746279
3.44e+008,2.95987,0.745463
3.45e+008,2.96417,0.751129
3.46e+008,2.95524,0.750266
3.47e+008,2.95505,0.752804
3.48e+008,2.95602,0.751239
3.49e+008,2.94454,0.756876
3.5e+008,2.94824,0.749366
3.51e+008,2.94053,0.749757
3.52e+008,2.93647,0.754514
3.53e+008,2.93189,0.753745
3.54e+008,2.92575,0.754877
3.55e+008,2.92114,0.753628
3.56e+008,2.91847,0.754282
3.57e+008,2.90878,0.749913
3.58e+008,2.89826,0.750302
3.59e+008,2.90067,0.755129
3.6e+008,2.89631,0.749634
3.61e+008,2.88654,0.75347
3.62e+008,2.88092,0.748279
3.63e+008,2.86585,0.752618
3.64e+008,2.86223,0.756441
3.65e+008,2.85291,0.75283
3.66e+008,2.84435,0.747352
3.67e+008,2.83995,0.745931
3.68e+008,2.83051,0.749315
3.69e+008,2.82486,0.750569
3.7e+008,2.81325,0.741639
3.71e+008,2.80232,0.745001
3.72e+008,2.79238,0.748338
3.73e+008,2.78585,0.747188
3.74e+008,2.78352,0.744264
3.75e+008,2.77025,0.743324
3.76e+008,2.76042,0.744076
3.77e+008,2.75847,0.737853
3.78e+008,2.74954,0.738248
3.79e+008,2.73696,0.740053
3.8e+008,2.72817,0.731894
3.81e+008,2.71584,0.737656
3.82e+008,2.70676,0.734616
3.83e+008,2.69984,0.738574
3.84e+008,2.68919,0.741704
3.85e+008,2.6793,0.738015
3.86e+008,2.67365,0.735887
3.87e+008,2.66527,0.734943
3.88e+008,2.65497,0.732579
3.89e+008,2.64576,0.730569
3.9e+008,2.63581,0.735083
3.91e+008,2.62965,0.737873
3.92e+008,2.62272,0.731073
3.93e+008,2.61596,0.733938
3.94e+008,2.60872,0.734973
3.95e+008,2.59678,0.732922
3.96e+008,2.60036,0.730731
3.97e+008,2.59344,0.730212
3.98e+008,2.58274,0.732376
3.99e+008,2.58075,0.729405
4e+008,2.57952,0.731982
4.01e+008,2.57612,0.7319
4.02e+008,2.56937,0.734488
4.03e+008,2.5653,0.732876
4.04e+008,2.5637,0.728732
4.05e+008,2.55501,0.73607
4.06e+008,2.55733,0.73231
4.07e+008,2.55071,0.731077
4.08e+008,2.5527,0.737227
4.09e+008,2.54981,0.732415
4.1e+008,2.545,0.7324
4.11e+008,2.54949,0.73663
4.12e+008,2.54527,0.737262
4.13e+008,2.5447,0.739629
4.14e+008,2.54576,0.734211
4.15e+008,2.54447,0.742247
4.16e+008,2.54254,0.739702
4.17e+008,2.54503,0.744971
4.18e+008,2.54772,0.745272
4.19e+008,2.55282,0.747227
4.2e+008,2.55793,0.745382
4.21e+008,2.5559,0.746249
4.22e+008,2.5618,0.748706
4.23e+008,2.56484,0.749176
4.24e+008,2.57027,0.751398
4.25e+008,2.57132,0.751421
4.26e+008,2.57582,0.756479
4.27e+008,2.57886,0.754758
4.28e+008,2.58586,0.755623
4.29e+008,2.59204,0.757024
4.3e+008,2.60052,0.75653
4.31e+008,2.6002,0.760311
4.32e+008,2.61082,0.760371
4.33e+008,2.6168,0.763702
4.34e+008,2.6203,0.760662
4.35e+008,2.62672,0.765373
4.36e+008,2.62998,0.76723
4.37e+008,2.63881,0.76584
4.38e+008,2.6455,0.766589
4.39e+008,2.65101,0.770252
4.4e+008,2.65391,0.776973
4.41e+008,2.66238,0.774727
4.42e+008,2.66692,0.776473
4.43e+008,2.67486,0.77727
4.44e+008,2.67582,0.778536
4.45e+008,2.68062,0.783303
4.46e+008,2.68112,0.786516
4.47e+008,2.68756,0.789494
4.48e+008,2.69298,0.789042
4.49e+008,2.69043,0.792457
4.5e+008,2.6942,0.795189
4.51e+008,2.69923,0.794475
4.52e+008,2.69887,0.797945
4.53e+008,2.70605,0.798345
4.54e+008,2.70641,0.805655
4.55e+008,2.71007,0.801562
4.56e+008,2.71433,0.801933
4.57e+008,2.71568,0.803948
4.58e+008,2.71938,0.806447
4.59e+008,2.71555,0.808357
4.6e+008,2.7227,0.810378
4.61e+008,2.71881,0.80407
4.62e+008,2.72219,0.813382
4.63e+008,2.71654,0.813048
4.64e+008,2.72061,0.817222
4.65e+008,2.71753,0.8192
4.66e+008,2.71897,0.817211
4.67e+008,2.7186,0.816693
4.68e+008,2.714,0.81702
4.69e+008,2.71902,0.819049
4.7e+008,2.71428,0.815616
4.71e+008,2.7083,0.815866
4.72e+008,2.70836,0.814714
4.73e+008,2.70337,0.819689
4.74e+008,2.70195,0.814992
4.75e+008,2.6949,0.815752
4.76e+008,2.69555,0.814423
4.77e+008,2.69141,0.817257
4.78e+008,2.68501,0.813154
4.79e+008,2.68536,0.819226
4.8e+008,2.67618,0.810921
4.81e+008,2.67104,0.814466
4.82e+008,2.66937,0.810933
4.83e+008,2.66434,0.807437
4.84e+008,2.65391,0.812522
4.85e+008,2.64694,0.813718
4.86e+008,2.64486,0.806175
4.87e+008,2.63242,0.80514
4.88e+008,2.63312,0.805704
4.89e+008,2.62281,0.803624
4.9e+008,2.61243,0.804601
4.91e+008,2.60749,0.798047
4.92e+008,2.5997,0.797546
4.93e+008,2.59305,0.795506
4.94e+008,2.58523,0.795215
4.95e+008,2.57506,0.795531
4.96e+008,2.5687,0.792189
4.97e+008,2.56051,0.790093
4.98e+008,2.55087,0.791868
4.99e+008,2.54163,0.790008
5e+008,2.53472,0.785305

