Coaxial Probe Method (Opt. 004) 20.0.22083101
Keysight Technologies,P9371A,MY57211751,A.17.25.05

Ch 1
Port:, 1
Probe:, High temperature
Std1:, Air
Std2:, Short
Std3:, 25.0C water
IFBW:, 300.000000 Hz
Power:, -5.000000 dBm
Date:,"Saturday, July 06, 2024 18:25:09"
frequency(Hz),e',e''
3e+008,3.03543,0.734834
3.01e+008,3.03249,0.731838
3.02e+008,3.0288,0.727777
3.03e+008,3.03181,0.740363
3.04e+008,3.03039,0.734444
3.05e+008,3.03079,0.734987
3.06e+008,3.02548,0.735945
3.07e+008,3.02747,0.742559
3.08e+008,3.02572,0.745203
3.09e+008,3.02472,0.753739
3.1e+008,3.02403,0.745596
3.11e+008,3.02487,0.756319
3.12e+008,3.02188,0.751476
3.13e+008,3.02743,0.748658
3.14e+008,3.02501,0.754044
3.15e+008,3.02515,0.749844
3.16e+008,3.02705,0.752822
3.17e+008,3.02575,0.753817
3.18e+008,3.0147,0.757679
3.19e+008,3.01368,0.746407
3.2e+008,3.01736,0.754473
3.21e+008,3.01441,0.753901
3.22e+008,3.00758,0.754877
3.23e+008,3.00746,0.758434
3.24e+008,3.00645,0.760848
3.25e+008,2.99622,0.76136
3.26e+008,2.99902,0.757915
3.27e+008,2.99763,0.763073
3.28e+008,2.98824,0.764114
3.29e+008,2.9874,0.763575
3.3e+008,2.98153,0.763581
3.31e+008,2.98155,0.762434
3.32e+008,2.97323,0.762247
3.33e+008,2.96623,0.769455
3.34e+008,2.96523,0.762215
3.35e+008,2.95626,0.760839
3.36e+008,2.95188,0.759434
3.37e+008,2.94613,0.757985
3.38e+008,2.94362,0.768775
3.39e+008,2.93459,0.765157
3.4e+008,2.92836,0.760061
3.41e+008,2.9256,0.764258
3.42e+008,2.91774,0.760361
3.43e+008,2.91043,0.755564
3.44e+008,2.90593,0.756439
3.45e+008,2.90848,0.757209
3.46e+008,2.89413,0.755422
3.47e+008,2.88927,0.754951
3.48e+008,2.88487,0.754355
3.49e+008,2.87341,0.756636
3.5e+008,2.86959,0.752
3.51e+008,2.86286,0.74813
3.52e+008,2.85552,0.751801
3.53e+008,2.85137,0.74639
3.54e+008,2.84438,0.747188
3.55e+008,2.82922,0.747384
3.56e+008,2.83095,0.751163
3.57e+008,2.81901,0.748169
3.58e+008,2.80847,0.745721
3.59e+008,2.80896,0.748106
3.6e+008,2.79886,0.746406
3.61e+008,2.7936,0.747196
3.62e+008,2.78218,0.740965
3.63e+008,2.77288,0.742887
3.64e+008,2.76931,0.743017
3.65e+008,2.76014,0.745139
3.66e+008,2.75514,0.745334
3.67e+008,2.74642,0.743625
3.68e+008,2.73878,0.739989
3.69e+008,2.73054,0.745295
3.7e+008,2.72363,0.736883
3.71e+008,2.718,0.738457
3.72e+008,2.71333,0.742365
3.73e+008,2.70828,0.740356
3.74e+008,2.70112,0.743455
3.75e+008,2.69549,0.743352
3.76e+008,2.6855,0.741856
3.77e+008,2.68474,0.737667
3.78e+008,2.67657,0.736691
3.79e+008,2.66901,0.744474
3.8e+008,2.66195,0.733535
3.81e+008,2.65541,0.740806
3.82e+008,2.64896,0.740627
3.83e+008,2.64663,0.743334
3.84e+008,2.64044,0.748113
3.85e+008,2.63251,0.74899
3.86e+008,2.62575,0.745991
3.87e+008,2.62571,0.744562
3.88e+008,2.6205,0.74396
3.89e+008,2.61619,0.744588
3.9e+008,2.60954,0.747164
3.91e+008,2.6048,0.75699
3.92e+008,2.60244,0.754272
3.93e+008,2.59472,0.758985
3.94e+008,2.59489,0.754216
3.95e+008,2.58897,0.757692
3.96e+008,2.59203,0.758901
3.97e+008,2.59127,0.760155
3.98e+008,2.58458,0.761345
3.99e+008,2.58772,0.760971
4e+008,2.58286,0.763052
4.01e+008,2.5895,0.767259
4.02e+008,2.58513,0.769078
4.03e+008,2.58412,0.773581
4.04e+008,2.58491,0.766385
4.05e+008,2.57954,0.77277
4.06e+008,2.5855,0.773002
4.07e+008,2.58168,0.776084
4.08e+008,2.58606,0.778587
4.09e+008,2.58493,0.777567
4.1e+008,2.5848,0.78165
4.11e+008,2.5914,0.782094
4.12e+008,2.58965,0.781634
4.13e+008,2.59017,0.786192
4.14e+008,2.59503,0.783016
4.15e+008,2.60083,0.792236
4.16e+008,2.59557,0.787719
4.17e+008,2.59976,0.795745
4.18e+008,2.60206,0.79536
4.19e+008,2.60901,0.79531
4.2e+008,2.61076,0.794846
4.21e+008,2.61519,0.795331
4.22e+008,2.62107,0.799453
4.23e+008,2.62481,0.798997
4.24e+008,2.63231,0.804868
4.25e+008,2.63523,0.802602
4.26e+008,2.63854,0.808087
4.27e+008,2.64737,0.804693
4.28e+008,2.64915,0.806474
4.29e+008,2.65722,0.804559
4.3e+008,2.66096,0.810283
4.31e+008,2.6677,0.809095
4.32e+008,2.67419,0.805888
4.33e+008,2.67586,0.807264
4.34e+008,2.68362,0.807235
4.35e+008,2.69162,0.812629
4.36e+008,2.68966,0.814507
4.37e+008,2.70076,0.808797
4.38e+008,2.70484,0.810878
4.39e+008,2.70846,0.808705
4.4e+008,2.70862,0.813814
4.41e+008,2.71734,0.812341
4.42e+008,2.71668,0.817849
4.43e+008,2.72429,0.816075
4.44e+008,2.72599,0.816856
4.45e+008,2.7272,0.817251
4.46e+008,2.72467,0.813613
4.47e+008,2.72627,0.819498
4.48e+008,2.72845,0.814365
4.49e+008,2.72555,0.815683
4.5e+008,2.73013,0.818591
4.51e+008,2.73251,0.819378
4.52e+008,2.73095,0.820963
4.53e+008,2.72939,0.818407
4.54e+008,2.73142,0.823948
4.55e+008,2.73003,0.817407
4.56e+008,2.73312,0.817911
4.57e+008,2.73073,0.82015
4.58e+008,2.72864,0.817551
4.59e+008,2.72633,0.819217
4.6e+008,2.72788,0.817997
4.61e+008,2.72273,0.812495
4.62e+008,2.72431,0.815099
4.63e+008,2.7182,0.816579
4.64e+008,2.71454,0.817904
4.65e+008,2.71346,0.818378
4.66e+008,2.70844,0.816829
4.67e+008,2.7075,0.81171
4.68e+008,2.69983,0.814426
4.69e+008,2.70001,0.814386
4.7e+008,2.69608,0.809489
4.71e+008,2.68618,0.8069
4.72e+008,2.68502,0.804611
4.73e+008,2.67655,0.807717
4.74e+008,2.67196,0.805971
4.75e+008,2.66556,0.803618
4.76e+008,2.66168,0.802439
4.77e+008,2.65569,0.803318
4.78e+008,2.64505,0.795492
4.79e+008,2.6433,0.79812
4.8e+008,2.63206,0.796756
4.81e+008,2.62783,0.795922
4.82e+008,2.62378,0.790102
4.83e+008,2.6168,0.790399
4.84e+008,2.60512,0.792849
4.85e+008,2.59559,0.79006
4.86e+008,2.59039,0.78455
4.87e+008,2.58414,0.781991
4.88e+008,2.57744,0.781432
4.89e+008,2.56776,0.779073
4.9e+008,2.56052,0.780901
4.91e+008,2.55402,0.777439
4.92e+008,2.54282,0.775309
4.93e+008,2.53559,0.773743
4.94e+008,2.52998,0.774535
4.95e+008,2.51695,0.774284
4.96e+008,2.50996,0.772699
4.97e+008,2.50224,0.770855
4.98e+008,2.4946,0.771956
4.99e+008,2.48627,0.767553
5e+008,2.47803,0.766195

