Coaxial Probe Method (Opt. 004) 20.0.22083101
Keysight Technologies,P9371A,MY57211749,A.17.25.05

Ch 1
Port:, 1
Probe:, High temperature
Std1:, Air
Std2:, Short
Std3:, 25.0C water
IFBW:, 300.000000 Hz
Power:, -5.000000 dBm
Date:,"Thursday, February 22, 2024 18:21:43"
frequency(Hz),e',e''
3e+008,2.82768,0.16028
3.01e+008,2.82557,0.160979
3.02e+008,2.82602,0.160329
3.03e+008,2.81942,0.154916
3.04e+008,2.82746,0.162544
3.05e+008,2.81929,0.161792
3.06e+008,2.82518,0.163025
3.07e+008,2.81659,0.161511
3.08e+008,2.81876,0.161067
3.09e+008,2.81944,0.16851
3.1e+008,2.82052,0.165815
3.11e+008,2.81713,0.16577
3.12e+008,2.81484,0.164685
3.13e+008,2.80408,0.16632
3.14e+008,2.80913,0.166736
3.15e+008,2.81137,0.168646
3.16e+008,2.81147,0.162023
3.17e+008,2.80852,0.17009
3.18e+008,2.80008,0.169012
3.19e+008,2.80711,0.172895
3.2e+008,2.80826,0.170246
3.21e+008,2.8013,0.167808
3.22e+008,2.81021,0.165932
3.23e+008,2.80235,0.173874
3.24e+008,2.80524,0.166757
3.25e+008,2.80625,0.172578
3.26e+008,2.80353,0.17444
3.27e+008,2.80559,0.173169
3.28e+008,2.80736,0.175158
3.29e+008,2.80039,0.174483
3.3e+008,2.8091,0.177746
3.31e+008,2.8071,0.181915
3.32e+008,2.80334,0.184973
3.33e+008,2.80871,0.178423
3.34e+008,2.80757,0.183445
3.35e+008,2.80515,0.178728
3.36e+008,2.8076,0.177962
3.37e+008,2.80518,0.183927
3.38e+008,2.80417,0.186734
3.39e+008,2.80183,0.187023
3.4e+008,2.80591,0.186417
3.41e+008,2.81247,0.187138
3.42e+008,2.81097,0.184444
3.43e+008,2.80826,0.18476
3.44e+008,2.81062,0.18965
3.45e+008,2.81042,0.186195
3.46e+008,2.81551,0.188507
3.47e+008,2.81322,0.190721
3.48e+008,2.81714,0.194105
3.49e+008,2.82355,0.18974
3.5e+008,2.82052,0.188747
3.51e+008,2.81575,0.19173
3.52e+008,2.81619,0.188839
3.53e+008,2.81934,0.193867
3.54e+008,2.82468,0.192016
3.55e+008,2.82518,0.192937
3.56e+008,2.82328,0.195902
3.57e+008,2.82567,0.193523
3.58e+008,2.83022,0.193597
3.59e+008,2.82963,0.190903
3.6e+008,2.83477,0.195471
3.61e+008,2.83536,0.198227
3.62e+008,2.83503,0.193108
3.63e+008,2.83924,0.1934
3.64e+008,2.84012,0.199989
3.65e+008,2.83958,0.19634
3.66e+008,2.84503,0.193441
3.67e+008,2.84818,0.202607
3.68e+008,2.84789,0.201836
3.69e+008,2.84626,0.198288
3.7e+008,2.84418,0.197316
3.71e+008,2.84382,0.192901
3.72e+008,2.85065,0.193562
3.73e+008,2.85394,0.200966
3.74e+008,2.85521,0.195872
3.75e+008,2.85945,0.198527
3.76e+008,2.85847,0.195617
3.77e+008,2.86047,0.19767
3.78e+008,2.86216,0.197991
3.79e+008,2.86423,0.193077
3.8e+008,2.85928,0.191867
3.81e+008,2.87197,0.1989
3.82e+008,2.86761,0.198275
3.83e+008,2.87221,0.194975
3.84e+008,2.8701,0.195108
3.85e+008,2.87396,0.199571
3.86e+008,2.87302,0.195675
3.87e+008,2.87406,0.19241
3.88e+008,2.87834,0.188541
3.89e+008,2.88059,0.190413
3.9e+008,2.87946,0.193096
3.91e+008,2.87889,0.191367
3.92e+008,2.88434,0.189498
3.93e+008,2.87874,0.198087
3.94e+008,2.87975,0.195307
3.95e+008,2.87844,0.189067
3.96e+008,2.88005,0.190114
3.97e+008,2.87943,0.194205
3.98e+008,2.8807,0.188295
3.99e+008,2.88619,0.191055
4e+008,2.88024,0.190297
4.01e+008,2.88966,0.189555
4.02e+008,2.88891,0.187473
4.03e+008,2.89112,0.185478
4.04e+008,2.88883,0.18506
4.05e+008,2.88302,0.188549
4.06e+008,2.88831,0.185143
4.07e+008,2.8879,0.189317
4.08e+008,2.89549,0.184026
4.09e+008,2.89,0.18804
4.1e+008,2.8938,0.178903
4.11e+008,2.89099,0.186175
4.12e+008,2.88405,0.181796
4.13e+008,2.88931,0.181391
4.14e+008,2.88679,0.183518
4.15e+008,2.8857,0.177827
4.16e+008,2.88973,0.181229
4.17e+008,2.88664,0.176225
4.18e+008,2.8855,0.180385
4.19e+008,2.89386,0.182585
4.2e+008,2.89199,0.181537
4.21e+008,2.88545,0.180695
4.22e+008,2.88851,0.1734
4.23e+008,2.88886,0.175082
4.24e+008,2.88608,0.177362
4.25e+008,2.88482,0.173874
4.26e+008,2.88306,0.176254
4.27e+008,2.88364,0.172213
4.28e+008,2.88538,0.171489
4.29e+008,2.88722,0.1696
4.3e+008,2.88344,0.168243
4.31e+008,2.88748,0.170166
4.32e+008,2.88542,0.175654
4.33e+008,2.87982,0.173585
4.34e+008,2.88129,0.167329
4.35e+008,2.88379,0.17264
4.36e+008,2.88269,0.174172
4.37e+008,2.87801,0.171084
4.38e+008,2.88088,0.165203
4.39e+008,2.8793,0.165181
4.4e+008,2.8739,0.166534
4.41e+008,2.87459,0.170283
4.42e+008,2.87736,0.168472
4.43e+008,2.87787,0.165481
4.44e+008,2.87575,0.165191
4.45e+008,2.87924,0.164119
4.46e+008,2.87301,0.164759
4.47e+008,2.87497,0.165437
4.48e+008,2.87314,0.165418
4.49e+008,2.86969,0.162069
4.5e+008,2.87725,0.165615
4.51e+008,2.87271,0.167608
4.52e+008,2.87078,0.167648
4.53e+008,2.87116,0.168311
4.54e+008,2.86805,0.163539
4.55e+008,2.86995,0.165292
4.56e+008,2.87266,0.168378
4.57e+008,2.86442,0.164148
4.58e+008,2.87224,0.166698
4.59e+008,2.86841,0.16188
4.6e+008,2.86978,0.163809
4.61e+008,2.86552,0.168741
4.62e+008,2.87065,0.170699
4.63e+008,2.86959,0.168016
4.64e+008,2.86604,0.169753
4.65e+008,2.87159,0.164856
4.66e+008,2.86318,0.165848
4.67e+008,2.86521,0.16154
4.68e+008,2.86862,0.163566
4.69e+008,2.86426,0.164204
4.7e+008,2.87281,0.164756
4.71e+008,2.86526,0.161202
4.72e+008,2.86896,0.16724
4.73e+008,2.86726,0.172132
4.74e+008,2.87336,0.166951
4.75e+008,2.86646,0.165147
4.76e+008,2.86701,0.163839
4.77e+008,2.86607,0.167383
4.78e+008,2.87052,0.165027
4.79e+008,2.87127,0.166817
4.8e+008,2.86424,0.165989
4.81e+008,2.86965,0.169947
4.82e+008,2.86804,0.167926
4.83e+008,2.86737,0.170555
4.84e+008,2.86472,0.171245
4.85e+008,2.86996,0.171456
4.86e+008,2.86965,0.168549
4.87e+008,2.87097,0.16665
4.88e+008,2.87153,0.168095
4.89e+008,2.87176,0.166626
4.9e+008,2.86648,0.163314
4.91e+008,2.87026,0.168306
4.92e+008,2.86996,0.169019
4.93e+008,2.86885,0.16952
4.94e+008,2.87031,0.169598
4.95e+008,2.86922,0.171918
4.96e+008,2.86755,0.168565
4.97e+008,2.86856,0.169772
4.98e+008,2.86999,0.164028
4.99e+008,2.87138,0.169122
5e+008,2.8674,0.167231

