Coaxial Probe Method (Opt. 004) 20.0.22083101
Keysight Technologies,P9371A,MY57211749,A.17.25.05

Ch 1
Port:, 1
Probe:, High temperature
Std1:, Air
Std2:, Short
Std3:, 25.0C water
IFBW:, 300.000000 Hz
Power:, -5.000000 dBm
Date:,"Tuesday, February 27, 2024 18:48:24"
frequency(Hz),e',e''
3e+008,4.59869,0.467248
3.01e+008,4.59463,0.462878
3.02e+008,4.59626,0.466082
3.03e+008,4.59442,0.46576
3.04e+008,4.5922,0.462217
3.05e+008,4.59614,0.470529
3.06e+008,4.59235,0.471363
3.07e+008,4.59248,0.466968
3.08e+008,4.59454,0.470088
3.09e+008,4.59073,0.471055
3.1e+008,4.58407,0.464218
3.11e+008,4.58703,0.469285
3.12e+008,4.58664,0.470823
3.13e+008,4.58567,0.471032
3.14e+008,4.58181,0.466552
3.15e+008,4.57935,0.463107
3.16e+008,4.57969,0.47574
3.17e+008,4.57947,0.471582
3.18e+008,4.58026,0.47282
3.19e+008,4.5796,0.467511
3.2e+008,4.57606,0.464509
3.21e+008,4.57478,0.47176
3.22e+008,4.57376,0.465908
3.23e+008,4.57316,0.466648
3.24e+008,4.57231,0.466238
3.25e+008,4.56441,0.464903
3.26e+008,4.57,0.468814
3.27e+008,4.55768,0.46333
3.28e+008,4.56803,0.462838
3.29e+008,4.56521,0.465211
3.3e+008,4.5572,0.464639
3.31e+008,4.55902,0.470201
3.32e+008,4.56069,0.463586
3.33e+008,4.55082,0.46264
3.34e+008,4.55355,0.460683
3.35e+008,4.54855,0.460909
3.36e+008,4.54976,0.460437
3.37e+008,4.54868,0.46261
3.38e+008,4.54294,0.461184
3.39e+008,4.54612,0.46202
3.4e+008,4.53932,0.4567
3.41e+008,4.53784,0.462664
3.42e+008,4.53963,0.459148
3.43e+008,4.53554,0.460802
3.44e+008,4.52894,0.458294
3.45e+008,4.52961,0.45552
3.46e+008,4.52331,0.462374
3.47e+008,4.52555,0.457023
3.48e+008,4.53131,0.459024
3.49e+008,4.52776,0.455327
3.5e+008,4.52293,0.455106
3.51e+008,4.51344,0.461477
3.52e+008,4.51869,0.457444
3.53e+008,4.51965,0.456513
3.54e+008,4.51629,0.455038
3.55e+008,4.51522,0.458402
3.56e+008,4.50875,0.456508
3.57e+008,4.50855,0.457731
3.58e+008,4.50464,0.454675
3.59e+008,4.5039,0.451693
3.6e+008,4.50703,0.453709
3.61e+008,4.50407,0.452243
3.62e+008,4.4976,0.452535
3.63e+008,4.50119,0.455668
3.64e+008,4.50499,0.451658
3.65e+008,4.4961,0.452924
3.66e+008,4.49741,0.447547
3.67e+008,4.49257,0.454422
3.68e+008,4.48936,0.451331
3.69e+008,4.49608,0.450565
3.7e+008,4.49834,0.446515
3.71e+008,4.49397,0.449721
3.72e+008,4.49812,0.448074
3.73e+008,4.4956,0.445434
3.74e+008,4.49023,0.442656
3.75e+008,4.49098,0.444429
3.76e+008,4.49124,0.445438
3.77e+008,4.48937,0.446888
3.78e+008,4.49126,0.447425
3.79e+008,4.48893,0.446374
3.8e+008,4.49147,0.447804
3.81e+008,4.49605,0.446639
3.82e+008,4.48739,0.446419
3.83e+008,4.49383,0.443048
3.84e+008,4.49696,0.44295
3.85e+008,4.48913,0.443343
3.86e+008,4.49419,0.446055
3.87e+008,4.49117,0.445148
3.88e+008,4.4949,0.4428
3.89e+008,4.49596,0.445381
3.9e+008,4.49548,0.450689
3.91e+008,4.49531,0.442831
3.92e+008,4.49826,0.451137
3.93e+008,4.49856,0.444494
3.94e+008,4.49992,0.448686
3.95e+008,4.49727,0.446876
3.96e+008,4.50088,0.447732
3.97e+008,4.50406,0.445757
3.98e+008,4.50433,0.447073
3.99e+008,4.50703,0.447682
4e+008,4.50997,0.45054
4.01e+008,4.50791,0.446402
4.02e+008,4.50887,0.449152
4.03e+008,4.51218,0.444192
4.04e+008,4.51502,0.447915
4.05e+008,4.51492,0.45414
4.06e+008,4.5209,0.44228
4.07e+008,4.52019,0.44737
4.08e+008,4.52277,0.446941
4.09e+008,4.52155,0.449813
4.1e+008,4.52228,0.445686
4.11e+008,4.5245,0.452641
4.12e+008,4.52408,0.442302
4.13e+008,4.52387,0.448123
4.14e+008,4.52902,0.444367
4.15e+008,4.5234,0.451844
4.16e+008,4.52936,0.448755
4.17e+008,4.52811,0.446187
4.18e+008,4.53257,0.449591
4.19e+008,4.53533,0.451381
4.2e+008,4.53277,0.441084
4.21e+008,4.54106,0.447765
4.22e+008,4.53666,0.450456
4.23e+008,4.53797,0.445777
4.24e+008,4.5428,0.451877
4.25e+008,4.54327,0.450617
4.26e+008,4.54496,0.453547
4.27e+008,4.54186,0.451893
4.28e+008,4.5406,0.451506
4.29e+008,4.54768,0.454559
4.3e+008,4.54236,0.45055
4.31e+008,4.54471,0.448846
4.32e+008,4.54576,0.449458
4.33e+008,4.54684,0.450182
4.34e+008,4.54421,0.454232
4.35e+008,4.5459,0.45251
4.36e+008,4.54361,0.45142
4.37e+008,4.54207,0.453929
4.38e+008,4.54832,0.451554
4.39e+008,4.5466,0.456028
4.4e+008,4.54082,0.451708
4.41e+008,4.54529,0.45419
4.42e+008,4.54398,0.451845
4.43e+008,4.54346,0.451648
4.44e+008,4.545,0.452531
4.45e+008,4.54237,0.446974
4.46e+008,4.54114,0.452054
4.47e+008,4.53938,0.443656
4.48e+008,4.53862,0.452869
4.49e+008,4.53904,0.451155
4.5e+008,4.53661,0.449306
4.51e+008,4.53467,0.445883
4.52e+008,4.53127,0.449555
4.53e+008,4.5315,0.449826
4.54e+008,4.52586,0.444768
4.55e+008,4.52248,0.447315
4.56e+008,4.52771,0.452186
4.57e+008,4.5225,0.450363
4.58e+008,4.5227,0.447485
4.59e+008,4.51957,0.448766
4.6e+008,4.52169,0.448035
4.61e+008,4.51639,0.445617
4.62e+008,4.51411,0.450989
4.63e+008,4.51091,0.445599
4.64e+008,4.5119,0.447509
4.65e+008,4.50793,0.449805
4.66e+008,4.50549,0.4443
4.67e+008,4.5039,0.442072
4.68e+008,4.50041,0.444036
4.69e+008,4.50028,0.443488
4.7e+008,4.49609,0.445635
4.71e+008,4.49333,0.444554
4.72e+008,4.49464,0.444422
4.73e+008,4.48851,0.444074
4.74e+008,4.48726,0.445199
4.75e+008,4.48478,0.444937
4.76e+008,4.48449,0.438797
4.77e+008,4.48196,0.445641
4.78e+008,4.47736,0.445702
4.79e+008,4.4756,0.440866
4.8e+008,4.47605,0.442803
4.81e+008,4.47287,0.440313
4.82e+008,4.4681,0.438902
4.83e+008,4.46699,0.442979
4.84e+008,4.46524,0.441589
4.85e+008,4.46339,0.436482
4.86e+008,4.46232,0.440804
4.87e+008,4.45884,0.442135
4.88e+008,4.46148,0.438769
4.89e+008,4.45873,0.442533
4.9e+008,4.45702,0.441495
4.91e+008,4.45435,0.439457
4.92e+008,4.45547,0.438072
4.93e+008,4.44877,0.443725
4.94e+008,4.45256,0.439285
4.95e+008,4.44574,0.444799
4.96e+008,4.4477,0.437302
4.97e+008,4.44518,0.44083
4.98e+008,4.44391,0.437847
4.99e+008,4.44732,0.438651
5e+008,4.44211,0.441317

